TITLE	WF_OEP24A_DPC_0,1_16,8uM_180522
DATA TYPE	
ORIGIN	JASCO
OWNER	
DATE	22/05/18
TIME	16:29:32
SPECTROMETER/DATA SYSTEM	
LOCALE	8192
RESOLUTION	
DELTAX	-0.1
XUNITS	NANOMETERS
YUNITS	CD [mdeg]
Y2UNITS	HT [V]
Y3UNITS	ABSORBANCE
FIRSTX	  260.0000
LASTX	  190.0000
NPOINTS	     701
FIRSTY	    -0.35621
MAXY	     6.62312
MINY	   -44.37675
XYDATA
260.0000	-0.356212	277.145	1.02116
259.9000	-0.331048	277.193	1.0217
259.8000	-0.371043	277.225	1.02207
259.7000	-0.347133	277.249	1.02234
259.6000	-0.359545	277.247	1.02232
259.5000	-0.355375	277.257	1.02243
259.4000	-0.356911	277.269	1.02257
259.3000	-0.357587	277.289	1.02279
259.2000	-0.356367	277.316	1.02309
259.1000	-0.458097	277.338	1.02334
259.0000	-0.426606	277.369	1.02369
258.9000	-0.416394	277.398	1.02402
258.8000	-0.435364	277.457	1.02468
258.7000	-0.473563	277.506	1.02524
258.6000	-0.501265	277.544	1.02567
258.5000	-0.510008	277.566	1.02592
258.4000	-0.504153	277.594	1.02623
258.3000	-0.466871	277.63	1.02664
258.2000	-0.466876	277.649	1.02686
258.1000	-0.499423	277.673	1.02713
258.0000	-0.483178	277.689	1.02731
257.9000	-0.493409	277.708	1.02752
257.8000	-0.471792	277.732	1.0278
257.7000	-0.465377	277.744	1.02792
257.6000	-0.442476	277.767	1.02818
257.5000	-0.44092	277.788	1.02842
257.4000	-0.40843	277.809	1.02866
257.3000	-0.441786	277.819	1.02878
257.2000	-0.414744	277.836	1.02896
257.1000	-0.416571	277.862	1.02925
257.0000	-0.425082	277.886	1.02952
256.9000	-0.447238	277.906	1.02975
256.8000	-0.470696	277.942	1.03016
256.7000	-0.487373	277.977	1.03055
256.6000	-0.517201	277.991	1.03071
256.5000	-0.493699	278.022	1.03106
256.4000	-0.516473	278.058	1.03147
256.3000	-0.501025	278.096	1.03189
256.2000	-0.468136	278.117	1.03213
256.1000	-0.423882	278.152	1.03252
256.0000	-0.427532	278.189	1.03294
255.9000	-0.429111	278.212	1.03321
255.8000	-0.441465	278.252	1.03365
255.7000	-0.482535	278.285	1.03403
255.6000	-0.491962	278.299	1.03418
255.5000	-0.497917	278.317	1.03438
255.4000	-0.580483	278.348	1.03473
255.3000	-0.582556	278.367	1.03495
255.2000	-0.573031	278.391	1.03522
255.1000	-0.576969	278.408	1.0354
255.0000	-0.578326	278.417	1.03551
254.9000	-0.582139	278.428	1.03564
254.8000	-0.543514	278.461	1.036
254.7000	-0.568919	278.47	1.03611
254.6000	-0.515185	278.508	1.03653
254.5000	-0.555322	278.541	1.0369
254.4000	-0.53784	278.558	1.0371
254.3000	-0.572258	278.605	1.03762
254.2000	-0.558517	278.641	1.03803
254.1000	-0.544454	278.694	1.03863
254.0000	-0.520751	278.746	1.03921
253.9000	-0.56538	278.804	1.03986
253.8000	-0.532265	278.852	1.0404
253.7000	-0.573691	278.898	1.04092
253.6000	-0.551885	278.93	1.04128
253.5000	-0.610552	278.973	1.04177
253.4000	-0.661531	279.005	1.04212
253.3000	-0.669036	279.039	1.0425
253.2000	-0.668305	279.074	1.04289
253.1000	-0.64343	279.106	1.04325
253.0000	-0.626132	279.141	1.04364
252.9000	-0.641919	279.159	1.04386
252.8000	-0.660022	279.2	1.04431
252.7000	-0.642641	279.239	1.04475
252.6000	-0.598314	279.277	1.04518
252.5000	-0.590066	279.316	1.04561
252.4000	-0.611682	279.34	1.04588
252.3000	-0.653108	279.387	1.04641
252.2000	-0.64185	279.418	1.04676
252.1000	-0.622449	279.461	1.04724
252.0000	-0.604082	279.5	1.04768
251.9000	-0.608266	279.539	1.04812
251.8000	-0.64381	279.579	1.04857
251.7000	-0.656188	279.612	1.04894
251.6000	-0.682032	279.661	1.04949
251.5000	-0.655299	279.706	1.04999
251.4000	-0.667318	279.748	1.05046
251.3000	-0.703431	279.792	1.05095
251.2000	-0.694508	279.822	1.05129
251.1000	-0.70729	279.857	1.05168
251.0000	-0.677824	279.878	1.05192
250.9000	-0.692045	279.912	1.0523
250.8000	-0.692912	279.939	1.05261
250.7000	-0.674935	279.961	1.05285
250.6000	-0.706714	279.998	1.05327
250.5000	-0.693651	280.024	1.05355
250.4000	-0.704848	280.052	1.05386
250.3000	-0.695815	280.087	1.05426
250.2000	-0.784937	280.12	1.05463
250.1000	-0.830247	280.152	1.05498
250.0000	-0.812349	280.182	1.05532
249.9000	-0.820488	280.22	1.05574
249.8000	-0.847555	280.264	1.05624
249.7000	-0.810558	280.318	1.05685
249.6000	-0.828642	280.353	1.05724
249.5000	-0.827412	280.388	1.05763
249.4000	-0.810478	280.424	1.05803
249.3000	-0.873639	280.47	1.05855
249.2000	-0.867819	280.522	1.05913
249.1000	-0.907994	280.576	1.05974
249.0000	-0.903414	280.613	1.06015
248.9000	-0.977169	280.633	1.06037
248.8000	-0.991205	280.678	1.06088
248.7000	-1.01816	280.718	1.06132
248.6000	-1.01936	280.774	1.06194
248.5000	-1.0178	280.83	1.06257
248.4000	-1.00851	280.865	1.06297
248.3000	-1.02649	280.893	1.06328
248.2000	-1.08953	280.929	1.06368
248.1000	-1.07638	280.982	1.06427
248.0000	-1.11588	281.023	1.06473
247.9000	-1.10454	281.052	1.06505
247.8000	-1.12414	281.099	1.06558
247.7000	-1.15315	281.156	1.06621
247.6000	-1.23599	281.201	1.06672
247.5000	-1.25819	281.251	1.06727
247.4000	-1.29272	281.333	1.06819
247.3000	-1.32925	281.401	1.06895
247.2000	-1.30914	281.479	1.06982
247.1000	-1.38557	281.536	1.07046
247.0000	-1.42021	281.611	1.07129
246.9000	-1.44651	281.675	1.072
246.8000	-1.47135	281.75	1.07284
246.7000	-1.47358	281.823	1.07365
246.6000	-1.48597	281.9	1.07452
246.5000	-1.49459	281.969	1.07528
246.4000	-1.4971	282.015	1.07579
246.3000	-1.52887	282.089	1.07662
246.2000	-1.54175	282.152	1.07732
246.1000	-1.52246	282.213	1.078
246.0000	-1.58302	282.283	1.07878
245.9000	-1.57305	282.348	1.0795
245.8000	-1.5585	282.409	1.08017
245.7000	-1.55023	282.452	1.08066
245.6000	-1.65633	282.503	1.08122
245.5000	-1.70323	282.563	1.08189
245.4000	-1.73844	282.614	1.08245
245.3000	-1.76441	282.677	1.08316
245.2000	-1.82446	282.74	1.08386
245.1000	-1.84935	282.817	1.08472
245.0000	-1.8752	282.898	1.08561
244.9000	-1.90495	282.989	1.08663
244.8000	-1.915	283.078	1.08762
244.7000	-1.92124	283.15	1.08841
244.6000	-1.95185	283.239	1.0894
244.5000	-2.0034	283.323	1.09033
244.4000	-2.03516	283.411	1.09131
244.3000	-2.09076	283.48	1.09207
244.2000	-2.11512	283.573	1.0931
244.1000	-2.13185	283.655	1.09401
244.0000	-2.20421	283.732	1.09487
243.9000	-2.24857	283.836	1.09601
243.8000	-2.2673	283.93	1.09706
243.7000	-2.29404	284.032	1.09819
243.6000	-2.37633	284.139	1.09937
243.5000	-2.41933	284.233	1.10041
243.4000	-2.4674	284.313	1.1013
243.3000	-2.52818	284.41	1.10237
243.2000	-2.58252	284.547	1.10388
243.1000	-2.6561	284.652	1.10505
243.0000	-2.71608	284.751	1.10614
242.9000	-2.75898	284.833	1.10705
242.8000	-2.78055	284.942	1.10825
242.7000	-2.77554	285.094	1.10993
242.6000	-2.83565	285.233	1.11146
242.5000	-2.90056	285.368	1.11295
242.4000	-2.93558	285.492	1.11432
242.3000	-3.00273	285.613	1.11565
242.2000	-3.04654	285.753	1.11719
242.1000	-3.14671	285.889	1.11869
242.0000	-3.20284	286.027	1.12021
241.9000	-3.28649	286.162	1.12169
241.8000	-3.32679	286.301	1.12322
241.7000	-3.40198	286.42	1.12453
241.6000	-3.46252	286.564	1.12612
241.5000	-3.51687	286.711	1.12774
241.4000	-3.59657	286.85	1.12925
241.3000	-3.68795	286.984	1.13073
241.2000	-3.77369	287.168	1.13274
241.1000	-3.83902	287.32	1.13442
241.0000	-3.94524	287.462	1.13597
240.9000	-4.05641	287.627	1.13778
240.8000	-4.12225	287.785	1.13951
240.7000	-4.22145	287.959	1.14142
240.6000	-4.29788	288.136	1.14335
240.5000	-4.28511	288.372	1.14593
240.4000	-4.44256	288.565	1.14804
240.3000	-4.51618	288.759	1.15016
240.2000	-4.59321	288.957	1.15232
240.1000	-4.71574	289.151	1.15444
240.0000	-4.78671	289.352	1.15663
239.9000	-4.8841	289.538	1.15866
239.8000	-4.99606	289.735	1.16081
239.7000	-5.08668	289.868	1.16225
239.6000	-5.13705	290.055	1.16428
239.5000	-5.2058	290.257	1.16649
239.4000	-5.28078	290.436	1.16843
239.3000	-5.35515	290.635	1.17059
239.2000	-5.39228	290.89	1.17336
239.1000	-5.45923	291.092	1.17555
239.0000	-5.52491	291.312	1.17794
238.9000	-5.64984	291.563	1.18066
238.8000	-5.78396	291.808	1.18331
238.7000	-5.85999	292.041	1.18584
238.6000	-6.02364	292.304	1.18868
238.5000	-6.19909	292.619	1.19208
238.4000	-6.39349	292.881	1.19491
238.3000	-6.53945	293.16	1.19792
238.2000	-6.66162	293.414	1.20065
238.1000	-6.75467	293.661	1.20331
238.0000	-6.94685	293.904	1.20594
237.9000	-7.04165	294.17	1.2088
237.8000	-7.1157	294.439	1.21169
237.7000	-7.20355	294.723	1.21474
237.6000	-7.28378	294.997	1.21768
237.5000	-7.37785	295.27	1.2206
237.4000	-7.48416	295.558	1.22369
237.3000	-7.66483	295.838	1.22668
237.2000	-7.7631	296.134	1.22985
237.1000	-7.8615	296.43	1.23302
237.0000	-7.99586	296.664	1.23551
236.9000	-8.17142	296.957	1.23864
236.8000	-8.27354	297.272	1.242
236.7000	-8.4276	297.562	1.24509
236.6000	-8.56252	297.875	1.24842
236.5000	-8.72063	298.192	1.25179
236.4000	-8.85716	298.522	1.2553
236.3000	-9.0085	298.857	1.25885
236.2000	-9.16064	299.183	1.26232
236.1000	-9.26927	299.518	1.26586
236.0000	-9.50041	299.855	1.26943
235.9000	-9.64025	300.204	1.27312
235.8000	-9.82187	300.569	1.27698
235.7000	-9.86787	300.939	1.28089
235.6000	-10.0208	301.398	1.28573
235.5000	-10.2259	301.78	1.28975
235.4000	-10.4361	302.166	1.29381
235.3000	-10.5845	302.56	1.29795
235.2000	-10.7803	302.97	1.30226
235.1000	-10.9247	303.362	1.30636
235.0000	-11.1341	303.774	1.31068
234.9000	-11.364	304.191	1.31504
234.8000	-11.5296	304.601	1.31933
234.7000	-11.6949	305.012	1.32362
234.6000	-11.8323	305.427	1.32794
234.5000	-12.0161	305.844	1.33229
234.4000	-12.147	306.275	1.33677
234.3000	-12.3355	306.703	1.34122
234.2000	-12.4298	307.039	1.34471
234.1000	-12.6335	307.476	1.34924
234.0000	-12.8824	307.923	1.35387
233.9000	-13.0988	308.374	1.35853
233.8000	-13.2627	308.846	1.36341
233.7000	-13.4421	309.319	1.36829
233.6000	-13.589	309.786	1.3731
233.5000	-13.7648	310.267	1.37805
233.4000	-13.8955	310.734	1.38285
233.3000	-13.9653	311.229	1.38793
233.2000	-14.204	311.728	1.39305
233.1000	-14.347	312.231	1.3982
233.0000	-14.5579	312.738	1.40338
232.9000	-14.7879	313.376	1.40989
232.8000	-14.9949	313.892	1.41516
232.7000	-15.2185	314.419	1.42052
232.6000	-15.441	314.962	1.42604
232.5000	-15.6973	315.499	1.43149
232.4000	-15.7723	315.897	1.43552
232.3000	-16.0062	316.427	1.44089
232.2000	-16.1319	316.97	1.44638
232.1000	-16.3126	317.504	1.45177
232.0000	-16.4822	318.066	1.45744
231.9000	-16.6043	318.48	1.4616
231.8000	-16.7155	318.896	1.46579
231.7000	-16.8924	319.45	1.47136
231.6000	-17.0283	319.855	1.47542
231.5000	-17.1642	320.27	1.47958
231.4000	-17.3712	320.691	1.4838
231.3000	-17.5592	321.124	1.48812
231.2000	-17.7037	321.542	1.4923
231.1000	-17.8364	322.105	1.49791
231.0000	-18.015	322.521	1.50206
230.9000	-18.2583	322.93	1.50613
230.8000	-18.4483	323.486	1.51166
230.7000	-18.7869	324.048	1.51723
230.6000	-19.0514	324.606	1.52277
230.5000	-19.2995	325.177	1.52841
230.4000	-19.4744	325.741	1.534
230.3000	-19.7328	326.31	1.53961
230.2000	-19.9256	326.871	1.54514
230.1000	-20.1601	327.444	1.55078
230.0000	-20.3748	328.013	1.55636
229.9000	-20.5413	328.579	1.56192
229.8000	-20.6429	329.159	1.5676
229.7000	-20.8153	329.733	1.57321
229.6000	-20.9968	330.309	1.57884
229.5000	-21.1767	330.912	1.58472
229.4000	-21.5081	331.527	1.59071
229.3000	-21.5964	332.158	1.59685
229.2000	-21.7971	332.809	1.60317
229.1000	-22.0281	333.47	1.60958
229.0000	-22.269	334.126	1.61592
228.9000	-22.4029	334.633	1.62082
228.8000	-22.7093	335.299	1.62724
228.7000	-22.9574	335.954	1.63355
228.6000	-23.224	336.619	1.63995
228.5000	-23.4007	337.116	1.64472
228.4000	-23.6469	337.747	1.65078
228.3000	-23.9202	338.375	1.65679
228.2000	-24.1747	339.02	1.66295
228.1000	-24.4476	339.661	1.66907
228.0000	-24.697	340.292	1.67508
227.9000	-24.7143	340.918	1.68103
227.8000	-24.9768	341.548	1.68702
227.7000	-25.2261	342.171	1.69293
227.6000	-25.5017	342.965	1.70044
227.5000	-25.6869	343.605	1.7065
227.4000	-25.8528	344.226	1.71235
227.3000	-26.0079	344.843	1.71817
227.2000	-26.1499	345.464	1.72402
227.1000	-26.5215	346.087	1.72987
227.0000	-26.7559	346.709	1.7357
226.9000	-27.0304	347.324	1.74146
226.8000	-27.2485	347.946	1.74728
226.7000	-27.4356	348.554	1.75296
226.6000	-27.5387	349.174	1.75874
226.5000	-27.8071	349.789	1.76447
226.4000	-28.0613	350.413	1.77027
226.3000	-28.3131	351.03	1.77599
226.2000	-28.4537	351.65	1.78174
226.1000	-28.5395	352.27	1.78748
226.0000	-28.733	352.734	1.79177
225.9000	-29.037	353.358	1.79753
225.8000	-29.2865	353.981	1.80327
225.7000	-29.637	354.605	1.80901
225.6000	-29.885	355.399	1.81631
225.5000	-30.2166	356.056	1.82234
225.4000	-30.438	356.7	1.82824
225.3000	-30.735	357.349	1.83418
225.2000	-30.9252	357.998	1.84011
225.1000	-31.2019	358.837	1.84775
225.0000	-31.4471	359.516	1.85393
224.9000	-31.6491	360.175	1.85992
224.8000	-31.8661	360.841	1.86597
224.7000	-31.9605	361.501	1.87194
224.6000	-32.2276	361.987	1.87634
224.5000	-32.46	362.654	1.88237
224.4000	-32.7331	363.325	1.88842
224.3000	-32.9282	363.992	1.89442
224.2000	-33.1156	364.659	1.90042
224.1000	-33.3119	365.341	1.90654
224.0000	-33.5952	366.014	1.91258
223.9000	-33.8295	366.696	1.91868
223.8000	-34.146	367.376	1.92476
223.7000	-34.2647	368.074	1.93099
223.6000	-34.3332	368.757	1.93707
223.5000	-34.6142	369.467	1.94338
223.4000	-34.6723	370.157	1.94951
223.3000	-34.8357	370.858	1.95572
223.2000	-35.0854	371.565	1.96198
223.1000	-35.2618	372.273	1.96824
223.0000	-35.4287	373	1.97466
222.9000	-35.6923	373.729	1.98108
222.8000	-35.9734	374.462	1.98752
222.7000	-36.255	375.199	1.99399
222.6000	-36.4766	375.946	2.00054
222.5000	-36.7052	376.708	2.00721
222.4000	-37.0632	377.475	2.01391
222.3000	-37.1472	378.24	2.02059
222.2000	-37.3043	379.022	2.02739
222.1000	-37.4477	379.787	2.03404
222.0000	-37.6346	380.566	2.0408
221.9000	-37.9324	381.355	2.04764
221.8000	-38.2064	382.139	2.05442
221.7000	-38.3857	382.913	2.0611
221.6000	-38.4729	383.712	2.06798
221.5000	-38.5207	384.535	2.07506
221.4000	-38.8622	385.34	2.08197
221.3000	-39.215	386.161	2.08901
221.2000	-39.3427	386.991	2.09611
221.1000	-39.2834	387.844	2.10339
221.0000	-39.3171	388.698	2.11067
220.9000	-39.5798	389.559	2.118
220.8000	-39.7394	390.421	2.12532
220.7000	-39.9509	391.286	2.13266
220.6000	-40.212	392.158	2.14003
220.5000	-40.08	393.038	2.14746
220.4000	-40.3096	393.949	2.15515
220.3000	-40.4508	395.067	2.16455
220.2000	-40.6258	395.964	2.17207
220.1000	-40.6994	396.895	2.17987
220.0000	-40.8642	397.813	2.18754
219.9000	-41.1373	398.748	2.19535
219.8000	-41.289	399.696	2.20324
219.7000	-41.428	400.66	2.21126
219.6000	-41.4182	401.889	2.22144
219.5000	-41.4576	402.888	2.22971
219.4000	-41.7268	403.636	2.23589
219.3000	-41.9582	404.659	2.24432
219.2000	-41.8111	405.681	2.25272
219.1000	-41.9439	406.738	2.2614
219.0000	-42.0662	407.793	2.27003
218.9000	-42.228	408.851	2.27868
218.8000	-42.4901	409.923	2.28742
218.7000	-42.6449	410.988	2.29609
218.6000	-42.7889	412.079	2.30494
218.5000	-42.7335	413.152	2.31363
218.4000	-43.1138	414.25	2.3225
218.3000	-43.0071	415.362	2.33147
218.2000	-43.0408	416.494	2.34058
218.1000	-43.0243	417.631	2.34971
218.0000	-43.1322	419.38	2.36371
217.9000	-43.2105	420.588	2.37334
217.8000	-43.3605	422.106	2.38542
217.7000	-43.3675	423.991	2.40037
217.6000	-43.5809	425.578	2.41291
217.5000	-43.5515	426.878	2.42316
217.4000	-43.4683	428.531	2.43615
217.3000	-43.6481	430.211	2.44931
217.2000	-43.7397	431.559	2.45984
217.1000	-43.6919	432.938	2.47058
217.0000	-43.7401	434.322	2.48133
216.9000	-43.8082	435.714	2.49211
216.8000	-43.9976	436.777	2.50032
216.7000	-44.0112	438.214	2.5114
216.6000	-44.0648	439.656	2.52249
216.5000	-44.1388	441.123	2.53373
216.4000	-44.2857	442.614	2.54513
216.3000	-44.2841	444.128	2.55667
216.2000	-44.0788	445.679	2.56847
216.1000	-44.1255	446.849	2.57734
216.0000	-44.099	448.446	2.58941
215.9000	-44.1618	450.066	2.60163
215.8000	-44.2955	451.712	2.614
215.7000	-44.3768	453.396	2.62661
215.6000	-44.2427	455.101	2.63935
215.5000	-43.94	456.844	2.65232
215.4000	-43.9154	458.163	2.66212
215.3000	-43.9616	459.927	2.67517
215.2000	-43.9149	461.756	2.68867
215.1000	-43.8607	463.597	2.70221
215.0000	-43.5407	465.479	2.716
214.9000	-43.3516	467.403	2.73005
214.8000	-43.4946	469.357	2.74428
214.7000	-43.5179	471.35	2.75873
214.6000	-43.2364	473.371	2.77334
214.5000	-43.381	475.432	2.78817
214.4000	-43.1318	478.065	2.80706
214.3000	-43.26	480.212	2.82238
214.2000	-43.0364	482.401	2.83795
214.1000	-42.9932	484.605	2.85357
214.0000	-42.7566	486.855	2.86945
213.9000	-42.9391	489.158	2.88564
213.8000	-42.8478	491.495	2.902
213.7000	-42.1902	493.876	2.91861
213.6000	-42.4564	496.295	2.9354
213.5000	-42.4058	498.753	2.95241
213.4000	-41.9687	501.268	2.96973
213.3000	-41.7689	503.183	2.98286
213.2000	-41.3677	505.775	3.00058
213.1000	-41.5397	508.399	3.01844
213.0000	-41.2822	511.093	3.03669
212.9000	-41.3941	513.83	3.05515
212.8000	-41.0389	517.309	3.0785
212.7000	-41.1812	520.187	3.09771
212.6000	-40.8472	522.358	3.11215
212.5000	-40.9812	525.293	3.13158
212.4000	-41.271	528.296	3.15136
212.3000	-40.7859	531.352	3.1714
212.2000	-40.3245	534.471	3.19175
212.1000	-39.654	537.64	3.21233
212.0000	-39.2261	540.04	3.22784
211.9000	-39.5613	543.308	3.24887
211.8000	-38.6979	547.474	3.27553
211.7000	-38.4702	550.916	3.29742
211.6000	-38.3937	554.42	3.31959
211.5000	-37.8111	558	3.34212
211.4000	-37.8456	561.667	3.36506
211.3000	-38.0016	565.401	3.3883
211.2000	-38.1073	570.204	3.418
211.1000	-37.7309	574.125	3.44208
211.0000	-38.0517	578.119	3.46647
210.9000	-38.1166	581.174	3.48504
210.8000	-37.8614	585.291	3.50992
210.7000	-38.4231	589.49	3.53515
210.6000	-38.0687	593.756	3.56061
210.5000	-38.3587	598.103	3.58641
210.4000	-39.0143	602.569	3.61275
210.3000	-38.52	605.967	3.63267
210.2000	-38.4254	610.571	3.65952
210.1000	-38.0035	615.277	3.68679
210.0000	-37.9286	620.071	3.71438
209.9000	-37.6958	624.983	3.74247
209.8000	-37.0281	630.014	3.77104
209.7000	-36.4795	635.16	3.80007
209.6000	-34.7658	641.769	3.83705
209.5000	-34.1966	647.171	3.86704
209.4000	-33.709	652.723	3.89764
209.3000	-34.1051	659.799	3.93632
209.2000	-34.5075	665.633	3.96794
209.1000	-34.8989	671.589	3.99998
209.0000	-34.2412	677.671	4.03246
208.9000	-34.036	683.87	4.0653
208.8000	-33.2464	690.203	4.09859
208.7000	-33.8104	696.686	4.1324
208.6000	-32.3482	703.291	4.16658
208.5000	-30.9018	710.034	4.20118
208.4000	-31.3122	716.916	4.23621
208.3000	-29.672	723.926	4.27159
208.2000	-29.612	729.309	4.29857
208.1000	-29.8279	736.586	4.33477
208.0000	-28.5604	745.862	4.38047
207.9000	-26.2186	751.539	4.4082
207.8000	-25.0339	759.197	4.44532
207.7000	-24.199	767.027	4.48295
207.6000	-20.8195	775.008	4.52096
207.5000	-19.6926	783.081	4.55908
207.4000	-16.8608	791.35	4.59777
207.3000	-14.1158	799.735	4.63665
207.2000	-13.9782	808.35	4.67624
207.1000	-12.3501	817.134	4.71623
207.0000	-10.5854	826.095	4.75666
206.9000	-9.74279	835.268	4.79765
206.8000	-9.21763	844.605	4.83897
206.7000	-6.89005	854.129	4.88073
206.6000	-6.46672	866.206	4.9331
206.5000	-6.16502	876.059	4.97537
206.4000	-5.18337	886.04	5.01778
206.3000	-5.68113	896.077	5.06001
206.2000	-6.97593	906.233	5.10233
206.1000	-5.72931	919.02	5.15504
206.0000	-5.47118	929.348	5.19715
205.9000	-7.82029	939.775	5.23926
205.8000	-8.94832	950.185	5.2809
205.7000	-7.95859	960.682	5.3225
205.6000	-8.05576	971.17	5.36367
205.5000	-6.30624	981.742	5.40478
205.4000	-4.59385	992.348	5.44565
205.3000	-3.18922	1002.92	5.48599
205.2000	-2.772	1013.52	5.52613
205.1000	-2.33463	1021.42	5.55576
205.0000	-0.271824	1031.88	5.59473
204.9000	1.76209	1044.81	5.64241
204.8000	1.494	1055	5.67965
204.7000	1.73029	1062.55	5.70705
204.6000	1.61279	1072.34	5.74229
204.5000	1.04328	1081.15	5.7738
204.4000	-1.18929	1090.39	5.80658
204.3000	-1.12553	1096.38	5.82771
204.2000	-2.96357	1101.22	5.8447
204.1000	-2.46379	1105.61	5.86009
204.0000	-1.87653	1108.24	5.86926
203.9000	-1.91212	1109.1	5.87226
203.8000	-2.40249	1109.17	5.8725
